frequency[MHz] Vratio_port0 Vratio_port1 Vratio_port2
30.00 1.402 1.402 1.403
31.00 1.364 1.364 1.416
32.00 1.212 1.212 1.365
33.00 1.125 1.125 1.161
34.00 1.165 1.165 1.097
35.00 1.206 1.206 1.128
36.00 1.240 1.240 1.175
37.00 1.269 1.269 1.218
38.00 1.296 1.296 1.260
39.00 1.284 1.284 1.260
40.00 1.274 1.274 1.237
41.00 1.288 1.288 1.252
42.00 1.296 1.296 1.265
43.00 1.297 1.297 1.269
44.00 1.293 1.293 1.269
45.00 1.287 1.287 1.261
46.00 1.283 1.283 1.256
47.00 1.284 1.284 1.253
48.00 1.287 1.287 1.255
49.00 1.293 1.293 1.261
50.00 1.298 1.298 1.267
51.00 1.301 1.301 1.273
52.00 1.303 1.303 1.279
53.00 1.298 1.298 1.280
54.00 1.290 1.290 1.278
55.00 1.275 1.275 1.267
56.00 1.260 1.260 1.251
57.00 1.248 1.248 1.229
58.00 1.242 1.242 1.210
59.00 1.244 1.244 1.197
60.00 1.250 1.250 1.193
61.00 1.260 1.260 1.198
62.00 1.270 1.270 1.205
63.00 1.280 1.280 1.216
64.00 1.292 1.292 1.229
65.00 1.304 1.304 1.243
66.00 1.313 1.313 1.256
67.00 1.322 1.322 1.268
68.00 1.328 1.328 1.281
69.00 1.329 1.329 1.292
70.00 1.323 1.323 1.298
71.00 1.309 1.309 1.302
72.00 1.282 1.282 1.295
73.00 1.255 1.255 1.280
74.00 1.227 1.227 1.249
75.00 1.211 1.211 1.213
76.00 1.205 1.205 1.179
77.00 1.211 1.211 1.157
78.00 1.224 1.224 1.149
79.00 1.238 1.238 1.153
80.00 1.254 1.254 1.165
81.00 1.270 1.270 1.182
82.00 1.285 1.285 1.198
83.00 1.300 1.300 1.217
84.00 1.311 1.311 1.233
85.00 1.320 1.320 1.250
86.00 1.327 1.327 1.267
87.00 1.326 1.326 1.283
88.00 1.308 1.308 1.291
89.00 1.277 1.277 1.295
90.00 1.243 1.243 1.297
91.00 1.203 1.203 1.283
92.00 1.173 1.173 1.249
93.00 1.155 1.155 1.205
94.00 1.156 1.156 1.157
95.00 1.162 1.162 1.109
96.00 1.176 1.176 1.085
97.00 1.192 1.192 1.075
98.00 1.210 1.210 1.082
99.00 1.231 1.231 1.098
100.00 1.250 1.250 1.120
101.00 1.268 1.268 1.141
102.00 1.282 1.282 1.162
103.00 1.300 1.300 1.187
104.00 1.310 1.310 1.211
105.00 1.310 1.310 1.230
106.00 1.300 1.300 1.250
107.00 1.275 1.275 1.266
108.00 1.232 1.232 1.275
109.00 1.186 1.186 1.272
110.00 1.156 1.156 1.252
111.00 1.136 1.136 1.212
112.00 1.132 1.132 1.158
113.00 1.138 1.138 1.107
114.00 1.150 1.150 1.048
115.00 1.167 1.167 1.016
116.00 1.183 1.183 0.999
117.00 1.204 1.204 1.005
118.00 1.220 1.220 1.016
119.00 1.239 1.239 1.036
120.00 1.257 1.257 1.058
121.00 1.274 1.274 1.080
122.00 1.293 1.293 1.106
123.00 1.308 1.308 1.127
124.00 1.321 1.321 1.153
125.00 1.330 1.330 1.178
126.00 1.321 1.321 1.199
127.00 1.295 1.295 1.219
128.00 1.249 1.249 1.230
129.00 1.200 1.200 1.231
130.00 1.166 1.166 1.209
131.00 1.157 1.157 1.163
132.00 1.160 1.160 1.102
133.00 1.167 1.167 1.046
134.00 1.184 1.184 0.999
135.00 1.202 1.202 0.974
136.00 1.219 1.219 0.970
137.00 1.238 1.238 0.975
138.00 1.256 1.256 0.990
139.00 1.273 1.273 1.007
140.00 1.291 1.291 1.025
141.00 1.310 1.310 1.047
142.00 1.330 1.330 1.066
143.00 1.350 1.350 1.089
144.00 1.369 1.369 1.107
145.00 1.389 1.389 1.129
146.00 1.401 1.401 1.150
147.00 1.403 1.403 1.173
148.00 1.383 1.383 1.193
149.00 1.326 1.326 1.210
150.00 1.252 1.252 1.216
151.00 1.193 1.193 1.204
152.00 1.171 1.171 1.169
153.00 1.172 1.172 1.107
154.00 1.194 1.194 1.035
155.00 1.213 1.213 0.992
156.00 1.238 1.238 0.970
157.00 1.262 1.262 0.973
158.00 1.286 1.286 0.986
159.00 1.314 1.314 1.003
160.00 1.336 1.336 1.018
161.00 1.363 1.363 1.038
162.00 1.392 1.392 1.057
163.00 1.423 1.423 1.076
164.00 1.444 1.444 1.092
165.00 1.472 1.472 1.111
166.00 1.488 1.488 1.129
167.00 1.497 1.497 1.150
168.00 1.453 1.453 1.169
169.00 1.362 1.362 1.191
170.00 1.237 1.237 1.207
171.00 1.123 1.123 1.220
172.00 1.070 1.070 1.230
173.00 1.067 1.067 1.213
174.00 1.088 1.088 1.165
175.00 1.120 1.120 1.093
176.00 1.155 1.155 1.018
177.00 1.190 1.190 0.973
178.00 1.229 1.229 0.961
179.00 1.263 1.263 0.971
180.00 1.298 1.298 0.990
181.00 1.336 1.336 1.012
182.00 1.364 1.364 1.034
183.00 1.390 1.390 1.054
184.00 1.387 1.387 1.076
185.00 1.346 1.346 1.095
186.00 1.235 1.235 1.116
187.00 1.120 1.120 1.134
188.00 1.019 1.019 1.154
189.00 0.975 0.975 1.172
190.00 0.973 0.973 1.188
191.00 0.992 0.992 1.203
192.00 1.019 1.019 1.204
193.00 1.047 1.047 1.198
194.00 1.075 1.075 1.164
195.00 1.102 1.102 1.100
196.00 1.125 1.125 1.027
197.00 1.148 1.148 0.964
198.00 1.172 1.172 0.920
199.00 1.194 1.194 0.907
200.00 1.215 1.215 0.922
201.00 1.235 1.235 0.941
202.00 1.252 1.252 0.964
203.00 1.264 1.264 0.987
204.00 1.248 1.248 1.011
205.00 1.206 1.206 1.033
206.00 1.145 1.145 1.055
207.00 1.110 1.110 1.072
208.00 1.098 1.098 1.093
209.00 1.111 1.111 1.102
210.00 1.129 1.129 1.106
211.00 1.149 1.149 1.096
212.00 1.166 1.166 1.073
213.00 1.183 1.183 1.032
214.00 1.198 1.198 0.987
215.00 1.213 1.213 0.950
216.00 1.227 1.227 0.930
217.00 1.239 1.239 0.927
218.00 1.252 1.252 0.931
219.00 1.265 1.265 0.940
220.00 1.278 1.278 0.951
221.00 1.289 1.289 0.965
222.00 1.301 1.301 0.978
223.00 1.311 1.311 0.991
224.00 1.318 1.318 1.003
225.00 1.318 1.318 1.015
226.00 1.303 1.303 1.027
227.00 1.272 1.272 1.038
228.00 1.241 1.241 1.049
229.00 1.232 1.232 1.058
230.00 1.238 1.238 1.064
231.00 1.249 1.249 1.070
232.00 1.264 1.264 1.065
233.00 1.279 1.279 1.052
234.00 1.293 1.293 1.038
235.00 1.306 1.306 1.028
236.00 1.318 1.318 1.026
237.00 1.330 1.330 1.029
238.00 1.339 1.339 1.034
239.00 1.350 1.350 1.041
240.00 1.359 1.359 1.047
241.00 1.366 1.366 1.054
242.00 1.368 1.368 1.060
243.00 1.365 1.365 1.066
244.00 1.355 1.355 1.072
245.00 1.338 1.338 1.078
246.00 1.324 1.324 1.083
247.00 1.317 1.317 1.088
248.00 1.319 1.319 1.093
249.00 1.327 1.327 1.098
250.00 1.337 1.337 1.103
